#  Table f622w.tab  Mon 11:02:30 21-Aug-95
# WAVELENGTH   THROUGHPUT        error
#  ANGSTROMS TRANSMISSION TRANSMISSION
      5000.0    8.4291E-7           0.
      5002.0    8.6220E-7           0.
      5004.0    7.9867E-7           0.
      5006.0    7.5631E-7           0.
      5008.0    7.6258E-7           0.
      5010.0    6.9596E-7           0.
      5012.0    5.6721E-7           0.
      5014.0    5.0109E-7           0.
      5016.0    5.7924E-7           0.
      5018.0    7.5472E-7           0.
      5020.0    8.2750E-7           0.
      5022.0    7.9847E-7           0.
      5024.0    7.4607E-7           0.
      5026.0    7.5542E-7           0.
      5028.0    7.6665E-7           0.
      5030.0    7.7958E-7           0.
      5032.0    8.5862E-7           0.
      5034.0    8.1935E-7           0.
      5036.0    6.4158E-7           0.
      5038.0    5.5985E-7           0.
      5040.0    6.6514E-7           0.
      5042.0    7.5502E-7           0.
      5044.0    8.1994E-7           0.
      5046.0    9.0783E-7           0.
      5048.0    8.5772E-7           0.
      5050.0    8.3863E-7           0.
      5052.0    8.2372E-7           0.
      5054.0    7.1147E-7           0.
      5056.0    6.8433E-7           0.
      5058.0    7.6437E-7           0.
      5060.0    8.5643E-7           0.
      5062.0    8.4271E-7           0.
      5064.0    8.4480E-7           0.
      5066.0    8.4211E-7           0.
      5068.0    7.6735E-7           0.
      5070.0    7.3653E-7           0.
      5072.0    7.5363E-7           0.
      5074.0    6.6673E-7           0.
      5076.0    6.3372E-7           0.
      5078.0    6.4754E-7           0.
      5080.0    6.7996E-7           0.
      5082.0    6.9248E-7           0.
      5084.0    6.5222E-7           0.
      5086.0    6.7608E-7           0.
      5088.0    7.9449E-7           0.
      5090.0    8.3675E-7           0.
      5092.0    8.0384E-7           0.
      5094.0    7.6029E-7           0.
      5096.0    8.1169E-7           0.
      5098.0    8.7333E-7           0.
      5100.0    8.6051E-7           0.
      5102.0    8.4619E-7           0.
      5104.0    8.2869E-7           0.
      5106.0    8.0364E-7           0.
      5108.0    7.8554E-7           0.
      5110.0    9.0674E-7           0.
      5112.0    1.0390E-6           0.
      5114.0    1.0290E-6           0.
      5116.0    8.2621E-7           0.
      5118.0    7.0590E-7           0.
      5120.0    8.2163E-7           0.
      5122.0    9.4442E-7           0.
      5124.0    9.2762E-7           0.
      5126.0    9.1052E-7           0.
      5128.0    9.5078E-7           0.
      5130.0    9.4601E-7           0.
      5132.0    9.6709E-7           0.
      5134.0    8.9719E-7           0.
      5136.0    9.0594E-7           0.
      5138.0    9.6888E-7           0.
      5140.0    8.8566E-7           0.
      5142.0    8.0334E-7           0.
      5144.0    8.1557E-7           0.
      5146.0    8.9759E-7           0.
      5148.0    9.0982E-7           0.
      5150.0    9.2126E-7           0.
      5152.0    9.3388E-7           0.
      5154.0    9.3000E-7           0.
      5156.0    9.3855E-7           0.
      5158.0    9.3796E-7           0.
      5160.0    8.4579E-7           0.
      5162.0    8.3167E-7           0.
      5164.0    9.2126E-7           0.
      5166.0    9.8807E-7           0.
      5168.0    1.1135E-6           0.
      5170.0    1.1434E-6           0.
      5172.0    1.0857E-6           0.
      5174.0    1.1503E-6           0.
      5176.0    1.2348E-6           0.
      5178.0    1.2020E-6           0.
      5180.0    1.2647E-6           0.
      5182.0    1.3621E-6           0.
      5184.0    1.4506E-6           0.
      5186.0    1.6564E-6           0.
      5188.0    1.7906E-6           0.
      5190.0    1.9407E-6           0.
      5192.0    2.2122E-6           0.
      5194.0    2.5462E-6           0.
      5196.0    2.7789E-6           0.
      5198.0    2.9141E-6           0.
      5200.0    3.0105E-6           0.
      5202.0    3.1895E-6           0.
      5204.0    3.5067E-6           0.
      5206.0    3.9570E-6           0.
      5208.0    4.7067E-6           0.
      5210.0    5.6124E-6           0.
      5212.0    6.4148E-6           0.
      5214.0    7.3076E-6           0.
      5216.0    8.4430E-6           0.
      5218.0    9.7514E-6           0.
      5220.0    1.1275E-5           0.
      5222.0    1.3014E-5           0.
      5224.0    1.5092E-5           0.
      5226.0    1.7618E-5           0.
      5228.0    2.0233E-5           0.
      5230.0    2.3036E-5           0.
      5232.0    2.6437E-5           0.
      5234.0    3.0404E-5           0.
      5236.0    3.4868E-5           0.
      5238.0    3.9670E-5           0.
      5240.0    4.4721E-5           0.
      5242.0    5.0020E-5           0.
      5244.0    5.5578E-5           0.
      5246.0    6.1374E-5           0.
      5248.0    6.7339E-5           0.
      5250.0    7.3553E-5           0.
      5252.0    7.9668E-5           0.
      5254.0    8.5484E-5           0.
      5256.0    9.1360E-5           0.
      5258.0    9.7246E-5           0.
      5260.0    1.0310E-4           0.
      5262.0    1.0917E-4           0.
      5264.0    1.1523E-4           0.
      5266.0    1.2130E-4           0.
      5268.0    1.2776E-4           0.
      5270.0    1.3472E-4           0.
      5272.0    1.4237E-4           0.
      5274.0    1.5092E-4           0.
      5276.0    1.6077E-4           0.
      5278.0    1.7190E-4           0.
      5280.0    1.8483E-4           0.
      5282.0    1.9954E-4           0.
      5284.0    2.1575E-4           0.
      5286.0    2.3454E-4           0.
      5288.0    2.5671E-4           0.
      5290.0    2.8167E-4           0.
      5292.0    3.0980E-4           0.
      5294.0    3.4212E-4           0.
      5296.0    3.7860E-4           0.
      5298.0    4.2016E-4           0.
      5300.0    4.6739E-4           0.
      5302.0    5.2108E-4           0.
      5304.0    5.8272E-4           0.
      5306.0    6.5401E-4           0.
      5308.0    7.3553E-4           0.
      5310.0    8.2810E-4           0.
      5312.0    9.3319E-4           0.
      5314.0    0.0010529           0.
      5316.0    0.0011891           0.
      5318.0    0.0013442           0.
      5320.0    0.0015212           0.
      5322.0     0.001723           0.
      5324.0    0.0019537           0.
      5326.0    0.0022151           0.
      5328.0    0.0025134           0.
      5330.0    0.0028485           0.
      5332.0    0.0032243           0.
      5334.0    0.0036429           0.
      5336.0    0.0041032           0.
      5338.0    0.0046122           0.
      5340.0    0.0051839           0.
      5342.0    0.0058172           0.
      5344.0    0.0064625           0.
      5346.0    0.0069497           0.
      5368.0     0.013502           0.
      5370.0     0.014933           0.
      5372.0     0.016425           0.
      5374.0     0.018035           0.
      5376.0     0.019765           0.
      5378.0     0.021615           0.
      5380.0     0.023663           0.
      5382.0      0.02581           0.
      5384.0     0.028137           0.
      5386.0     0.030622           0.
      5388.0     0.033267           0.
      5390.0     0.036091           0.
      5392.0     0.039014           0.
      5394.0     0.042136           0.
      5396.0     0.045456           0.
      5398.0     0.048956           0.
      5400.0     0.052694           0.
      5402.0     0.056552           0.
      5404.0     0.060628           0.
      5406.0     0.064903           0.
      5408.0     0.069377           0.
      5410.0     0.073991           0.
      5412.0     0.078823           0.
      5414.0     0.083873           0.
      5416.0     0.089163           0.
      5418.0     0.094631           0.
      5420.0      0.10022           0.
      5422.0      0.10608           0.
      5424.0      0.11205           0.
      5426.0      0.11831           0.
      5428.0      0.12468           0.
      5430.0      0.13114           0.
      5432.0       0.1379           0.
      5434.0      0.14486           0.
      5436.0      0.15192           0.
      5438.0      0.15918           0.
      5440.0      0.16673           0.
      5442.0      0.17429           0.
      5444.0      0.18194           0.
      5446.0       0.1898           0.
      5448.0      0.19785           0.
      5450.0       0.2062           0.
      5452.0      0.21465           0.
      5454.0      0.22311           0.
      5456.0      0.23176           0.
      5458.0       0.2406           0.
      5460.0      0.24955           0.
      5462.0       0.2586           0.
      5464.0      0.26785           0.
      5466.0      0.27709           0.
      5468.0      0.28644           0.
      5470.0      0.29578           0.
      5472.0      0.30523           0.
      5474.0      0.31467           0.
      5476.0      0.32422           0.
      5478.0      0.33376           0.
      5480.0      0.34331           0.
      5482.0      0.35295           0.
      5484.0       0.3627           0.
      5486.0      0.37234           0.
      5488.0      0.38188           0.
      5490.0      0.39133           0.
      5492.0      0.40077           0.
      5494.0      0.41002           0.
      5496.0      0.41927           0.
      5498.0      0.42832           0.
      5500.0      0.43746           0.
      5502.0      0.44651           0.
      5504.0      0.45556           0.
      5506.0      0.46441           0.
      5508.0      0.47335           0.
      5510.0       0.4823           0.
      5512.0      0.49105           0.
      5514.0       0.4995           0.
      5516.0      0.50795           0.
      5518.0      0.51611           0.
      5520.0      0.52416           0.
      5522.0      0.53211           0.
      5524.0      0.53997           0.
      5526.0      0.54782           0.
      5528.0      0.55558           0.
      5530.0      0.56313           0.
      5532.0      0.57049           0.
      5534.0      0.57755           0.
      5536.0      0.58461           0.
      5538.0      0.59157           0.
      5540.0      0.59823           0.
      5542.0      0.60479           0.
      5544.0      0.61125           0.
      5546.0      0.61742           0.
      5548.0      0.62338           0.
      5550.0      0.62925           0.
      5552.0      0.63502           0.
      5554.0      0.64048           0.
      5556.0      0.64575           0.
      5558.0      0.65102           0.
      5560.0      0.65619           0.
      5562.0      0.66126           0.
      5564.0      0.66614           0.
      5566.0      0.67101           0.
      5568.0      0.67578           0.
      5570.0      0.68035           0.
      5572.0      0.68483           0.
      5574.0       0.6891           0.
      5576.0      0.69328           0.
      5578.0      0.69745           0.
      5580.0      0.70163           0.
      5582.0      0.70581           0.
      5584.0      0.70968           0.
      5586.0      0.71356           0.
      5588.0      0.71724           0.
      5590.0      0.72092           0.
      5592.0       0.7246           0.
      5594.0      0.72827           0.
      5596.0      0.73175           0.
      5598.0      0.73523           0.
      5600.0      0.73852           0.
      5602.0       0.7418           0.
      5604.0      0.74498           0.
      5606.0      0.74796           0.
      5608.0      0.75094           0.
      5610.0      0.75383           0.
      5612.0      0.75671           0.
      5614.0      0.75959           0.
      5616.0      0.76238           0.
      5618.0      0.76506           0.
      5620.0      0.76775           0.
      5622.0      0.77043           0.
      5624.0      0.77311           0.
      5626.0       0.7757           0.
      5628.0      0.77838           0.
      5630.0      0.78097           0.
      5632.0      0.78336           0.
      5634.0      0.78584           0.
      5636.0      0.78833           0.
      5638.0      0.79081           0.
      5640.0       0.7933           0.
      5642.0      0.79578           0.
      5644.0      0.79847           0.
      5646.0      0.80105           0.
      5648.0      0.80354           0.
      5650.0      0.80602           0.
      5652.0      0.80851           0.
      5654.0      0.81109           0.
      5656.0      0.81358           0.
      5658.0      0.81597           0.
      5660.0      0.81835           0.
      5662.0      0.82074           0.
      5664.0      0.82312           0.
      5666.0      0.82541           0.
      5668.0       0.8278           0.
      5670.0      0.83008           0.
      5672.0      0.83237           0.
      5674.0      0.83476           0.
      5676.0      0.83684           0.
      5678.0      0.83913           0.
      5680.0      0.84142           0.
      5682.0      0.84351           0.
      5684.0      0.84569           0.
      5686.0      0.84798           0.
      5688.0      0.85007           0.
      5690.0      0.85226           0.
      5692.0      0.85454           0.
      5694.0      0.85703           0.
      5696.0      0.85931           0.
      5698.0      0.86091           0.
      5700.0      0.86538           0.
      5702.0      0.86697           0.
      5704.0      0.86916           0.
      5706.0      0.87125           0.
      5708.0      0.87333           0.
      5710.0      0.87562           0.
      5712.0      0.87781           0.
      5714.0       0.8798           0.
      5716.0      0.88198           0.
      5718.0      0.88407           0.
      5720.0      0.88596           0.
      5722.0      0.88785           0.
      5724.0      0.88974           0.
      5726.0      0.89143           0.
      5728.0      0.89322           0.
      5730.0      0.89521           0.
      5732.0        0.897           0.
      5734.0      0.89869           0.
      5736.0      0.90038           0.
      5738.0      0.90217           0.
      5740.0      0.90376           0.
      5742.0      0.90535           0.
      5744.0      0.90684           0.
      5746.0      0.90833           0.
      5748.0      0.91002           0.
      5750.0      0.91151           0.
      5752.0       0.9129           0.
      5754.0       0.9143           0.
      5756.0      0.91569           0.
      5758.0      0.91728           0.
      5760.0      0.91887           0.
      5762.0      0.92026           0.
      5764.0      0.92155           0.
      5766.0      0.92275           0.
      5768.0      0.92394           0.
      5770.0      0.92503           0.
      5772.0      0.92623           0.
      5774.0      0.92732           0.
      5776.0      0.92841           0.
      5778.0      0.92931           0.
      5780.0       0.9303           0.
      5782.0       0.9312           0.
      5784.0      0.93219           0.
      5786.0      0.93309           0.
      5788.0      0.93408           0.
      5790.0      0.93488           0.
      5792.0      0.93567           0.
      5794.0      0.93637           0.
      5796.0      0.93696           0.
      5798.0      0.93756           0.
      5800.0      0.93836           0.
      5802.0      0.93905           0.
      5804.0      0.93955           0.
      5806.0      0.94015           0.
      5808.0      0.94074           0.
      5810.0      0.94134           0.
      5812.0      0.94184           0.
      5814.0      0.94213           0.
      5816.0      0.94253           0.
      5818.0      0.94303           0.
      5820.0      0.94343           0.
      5822.0      0.94372           0.
      5824.0      0.94382           0.
      5826.0      0.94392           0.
      5828.0      0.94402           0.
      5830.0      0.94422           0.
      5832.0      0.94442           0.
      5834.0      0.94462           0.
      5836.0      0.94492           0.
      5838.0      0.94522           0.
      5840.0      0.94532           0.
      5842.0      0.94551           0.
      5844.0      0.94561           0.
      5846.0      0.94571           0.
      5848.0      0.94591           0.
      5850.0      0.94601           0.
      5852.0      0.94601           0.
      5854.0      0.94601           0.
      5856.0      0.94601           0.
      5858.0      0.94601           0.
      5860.0      0.94621           0.
      5862.0      0.94641           0.
      5864.0      0.94651           0.
      5866.0      0.94661           0.
      5868.0      0.94661           0.
      5870.0      0.94651           0.
      5872.0      0.94641           0.
      5874.0      0.94651           0.
      5876.0      0.94651           0.
      5878.0      0.94661           0.
      5880.0      0.94671           0.
      5882.0      0.94681           0.
      5884.0      0.94691           0.
      5886.0      0.94701           0.
      5888.0      0.94711           0.
      5890.0      0.94711           0.
      5892.0      0.94701           0.
      5894.0      0.94701           0.
      5896.0      0.94691           0.
      5898.0      0.94691           0.
      5900.0      0.94701           0.
      5902.0      0.94711           0.
      5904.0      0.94711           0.
      5906.0      0.94701           0.
      5908.0      0.94691           0.
      5910.0      0.94711           0.
      5912.0       0.9472           0.
      5914.0       0.9473           0.
      5916.0       0.9473           0.
      5918.0       0.9473           0.
      5920.0       0.9475           0.
      5922.0       0.9476           0.
      5924.0       0.9478           0.
      5926.0       0.9479           0.
      5928.0       0.9479           0.
      5930.0        0.948           0.
      5932.0       0.9484           0.
      5934.0       0.9486           0.
      5936.0       0.9487           0.
      5938.0       0.9488           0.
      5940.0      0.94889           0.
      5942.0      0.94909           0.
      5944.0      0.94919           0.
      5946.0      0.94929           0.
      5948.0      0.94949           0.
      5950.0      0.94969           0.
      5952.0      0.94979           0.
      5954.0      0.94989           0.
      5956.0      0.95009           0.
      5958.0      0.95029           0.
      5960.0      0.95058           0.
      5962.0      0.95088           0.
      5964.0      0.95108           0.
      5966.0      0.95148           0.
      5968.0      0.95168           0.
      5970.0      0.95198           0.
      5972.0      0.95218           0.
      5974.0      0.95228           0.
      5976.0      0.95237           0.
      5978.0      0.95257           0.
      5980.0      0.95267           0.
      5982.0      0.95297           0.
      5984.0      0.95337           0.
      5986.0      0.95357           0.
      5988.0      0.95367           0.
      5990.0      0.95387           0.
      5992.0      0.95397           0.
      5994.0      0.95416           0.
      5996.0      0.95426           0.
      5998.0      0.95426           0.
      6000.0      0.95436           0.
      6002.0      0.95446           0.
      6004.0      0.95456           0.
      6006.0      0.95466           0.
      6008.0      0.95476           0.
      6010.0      0.95486           0.
      6012.0      0.95486           0.
      6014.0      0.95496           0.
      6016.0      0.95506           0.
      6018.0      0.95516           0.
      6020.0      0.95536           0.
      6022.0      0.95546           0.
      6024.0      0.95566           0.
      6026.0      0.95566           0.
      6028.0      0.95575           0.
      6030.0      0.95575           0.
      6032.0      0.95585           0.
      6034.0      0.95605           0.
      6036.0      0.95595           0.
